#  Silicon
#
#  Pile
#
#  Sample:	Silicon granular (purity 99.9 %), 138.05 kg
#  Container:	60 cm stainless steel vessel (Type-III)
#  Apparent density:	1.29 g/cm3
#  Sample thickness:	1.1 mean free paths for 14 MeV neutrons
#
#  Date of experiment: Mar. 13, 1987
#
#  Neutron source spectrum is given in the Table 4.3.
#
#  Numerical data of measured leakage current spectrum from Si pile of 60 cm.
#
#  =============================================================
#
#  Lower Energy 	Upper Energy 	Lethargy Flux	Error
#  (MeV) 		(MeV) 		(l/MeV/n)
#  =============================================================
#
  19.7560   1.9262E+01	2.0250E+01	8.1335E-04	6.6222E-04
  18.7925   1.8323E+01	1.9262E+01	9.6518E-04	6.8179E-04
  17.8760   1.7429E+01	1.8323E+01	5.9867E-04	6.5426E-04
  17.0040   1.6579E+01	1.7429E+01	1.9181E-03	7.7606E-04
  16.1750   1.5771E+01	1.6579E+01	8.6973E-02	3.3531E-03
  15.3865   1.5002E+01	1.5771E+01	2.8511E+00	1.8895E-02
  14.6360   1.4270E+01	1.5002E+01	4.6557E+00	2.4208E-02
  13.9220   1.3574E+01	1.4270E+01	7.1086E-01	9.5240E-03
  13.2430   1.2912E+01	1.3574E+01	3.9610E-01	7.1234E-03
  12.5970   1.2282E+01	1.2912E+01	3.2538E-01	6.4673E-03
  11.9825   1.1683E+01	1.2282E+01	2.1964E-01	5.3334E-03
  11.3980   1.1113E+01	1.1683E+01	1.6482E-01	4.6185E-03
  10.8420   1.0571E+01	1.1113E+01	1.0885E-01	3.7416E-03
  10.3135   1.0056E+01	1.0571E+01	9.4420E-02	3.4169E-03
   9.8107   9.5654E+00	1.0056E+01	9.1877E-02	3.3190E-03
   9.3322   9.0989E+00	9.5654E+00	6.7527E-02	2.8426E-03
   8.8771   8.6552E+00	9.0989E+00	4.9392E-02	2.4297E-03
   8.4441   8.2330E+00	8.6552E+00	4.6502E-02	2.3272E-03
   8.0323   7.8315E+00	8.2330E+00	4.6812E-02	2.3020E-03
   7.6406   7.4496E+00	7.8315E+00	5.8152E-02	2.5558E-03
   7.2679   7.0862E+00	7.4496E+00	5.9597E-02	2.5794E-03
   6.9134   6.7406E+00	7.0862E+00	6.3686E-02	2.6444E-03
   6.5762   6.4119E+00	6.7406E+00	7.4049E-02	2.8232E-03
   6.2555   6.0992E+00	6.4119E+00	7.5567E-02	2.8344E-03
   5.9505   5.8017E+00	6.0992E+00	7.6344E-02	2.8116E-03
   5.6602   5.5188E+00	5.8017E+00	7.7715E-02	2.7877E-03
   5.3842   5.2496E+00	5.5188E+00	8.0602E-02	2.7923E-03
   5.1216   4.9936E+00	5.2496E+00	8.4097E-02	2.8082E-03
   4.8719   4.7501E+00	4.9936E+00	7.8632E-02	2.6844E-03
   4.6342   4.5184E+00	4.7501E+00	8.6939E-02	2.7829E-03
   4.4087   4.2990E+00	4.5184E+00	8.4593E-02	2.7159E-03
   4.1932   4.0884E+00	4.2980E+00	8.7135E-02	2.7264E-03
   3.9887   3.8890E+00	4.0884E+00	1.0502E-01	2.9640E-03
   3.7942   3.6993E+00	3.8890E+00	1.0654E-01	2.9742E-03
   3.6091   3.5189E+00	3.6993E+00	1.1318E-01	3.0515E-03
   3.4331   3.3473E+00	3.5189E+00	1.1247E-01	3.0325E-03
   3.2657   3.1841E+00	3.3473E+00	1.1430E-01	3.0185E-03
   3.1064   3.0288E+00	3.1841E+00	1.0925E-01	2.8999E-03
   2.9550   2.8811E+00	3.0288E+00	1.1217E-01	2.8885E-03
   2.8108   2.7405E+00	2.8811E+00	1.1707E-01	2.9036E-03
   2.6737   2.6069E+00	2.7405E+00	1.1165E-01	2.7994E-03
   2.5434   2.4798E+00	2.6069E+00	1.0273E-01	2.6553E-03
   2.4193   2.3588E+00	2.4798E+00	1.0522E-01	2.6564E-03
   2.3013   2.2438E+00	2.3588E+00	1.0947E-01	2.6787E-03
   2.1890   2.1343E+00	2.2438E+00	1.1768E-01	2.7560E-03
   2.0823   2.0302E+00	2.1343E+00	1.0542E-01	2.6049E-03
   1.9807   1.9312E+00	2.0302E+00	1.1132E-01	2.6660E-03
   1.8841   1.8370E+00	1.9312E+00	1.0726E-01	2.6114E-03
   1.7923   1.7475E+00	1.8370E+00	1.0474E-01	2.5719E-03
   1.7048   1.6622E+00	1.7475E+00	1.1833E-01	2.7141E-03
   1.6217   1.5812E+00	1.6622E+00	1.0546E-01	2.5574E-03
   1.5426   1.5040E+00	1.5812E+00	8.9502E-02	2.3556E-03
   1.4674   1.4307E+00	1.5040E+00	9.5143E-02	2.4138E-03
   1.3958   1.3609E+00	1.4307E+00	1.0082E-01	2.4678E-03
   1.3277   1.2945E+00	1.3609E+00	1.1575E-01	2.6222E-03
   1.2630   1.2314E+00	1.2945E+00	1.1397E-01	2.5903E-03
   1.2014   1.1714E+00	1.2314E+00	1.1744E-01	2.6215E-03
   1.1428   1.1142E+00	1.1714E+00	1.2217E-01	2.6696E-03
   1.0871   1.0599E+00	1.1142E+00	1.1534E-01	2.5948E-03
   1.0341   1.0082E+00	1.0599E+00	1.1313E-01	2.5696E-03
   0.9836   9.5902E-01	1.0082E+00	9.5558E-02	2.3538E-03
   0.9356   9.1225E-01	9.5902E-01	7.9707E-02	2.1333E-03
   0.8900   8.6776E-01	9.1225E-01	7.4947E-02	2.0479E-03
   0.8466   8.2544E-01	8.6776E-01	7.3883E-02	2.0115E-03
   0.8053   7.8518E-01	8.2544E-01	6.4497E-02	1.8788E-03
   0.7660   7.4689E-01	7.8518E-01	6.5289E-02	1.8852E-03
   0.7287   7.1046E-01	7.4689E-01	6.7053E-02	1.9040E-03
   0.6931   6.7581E-01	7.1046E-01	6.8967E-02	1.9255E-03
   0.6593   6.4285E-01	6.7581E-01	7.1933E-02	1.9628E-03
   0.6272   6.1150E-01	6.4285E-01	6.8864E-02	1.9242E-03
   0.5966   5.8168E-01	6.1150E-01	6.9920E-02	1.9389E-03
   0.5675   5.5331E-01	5.8168E-01	6.5943E-02	1.8892E-03
   0.5398   5.2632E-01	5.5331E-01	5.0143E-02	1.6848E-03
   0.5135   5.0065E-01	5.2632E-01	4.9526E-02	1.6991E-03
   0.4884   4.7624E-01	5.0065E-01	4.3867E-02	1.6348E-03
   0.4646   4.5301E-01	4.7624E-01	4.4897E-02	1.6745E-03
   0.4420   4.3092E-01	4.5301E-01	4.7290E-02	1.7365E-03
   0.4204   4.0990E-01	4.3092E-01	4.3008E-02	1.6938E-03
   0.3999   3.8991E-01	4.0990E-01	3.8659E-02	1.6456E-03
   0.3804   3.7089E-01	3.8991E-01	3.9371E-02	1.6833E-03
   0.3618   3.5280E-01	3.7089E-01	3.3380E-02	1.6059E-03
   0.3442   3.3560E-01	3.5280E-01	3.0751E-02	1.5895E-03
   0.3274   3.1923E-01	3.3560E-01	2.8832E-02	1.5853E-03
   0.3114   3.0366E-01	3.1923E-01	2.9186E-02	1.6267E-03
   0.2963   2.8885E-01	3.0366E-01	2.9051E-02	1.6738E-03
   0.2818   2.7476E-01	2.8885E-01	3.0012E-02	1.7568E-03
   0.2681   2.6136E-01	2.7476E-01	2.4265E-02	1.7011E-03
   0.2550   2.4862E-01	2.6136E-01	2.1480E-02	1.7072E-03
   0.2426   2.3649E-01	2.4862E-01	1.6161E-02	1.6649E-03
   0.2307   2.2496E-01	2.3649E-01	1.7088E-02	1.7923E-03
   0.2195   2.1399E-01	2.2496E-01	1.4463E-02	1.8388E-03
   0.2088   2.0355E-01	2.1399E-01	1.2835E-02	1.9217E-03
   0.1986   1.9362E-01	2.0355E-01	1.1093E-02	1.9918E-03
   0.1889   1.8418E-01	1.9362E-01	6.2261E-03	1.9665E-03
   0.1797   1.7520E-01	1.8418E-01	5.7034E-03	2.0772E-03
   0.1709   1.6665E-01	1.7520E-01	5.4970E-03	2.2066E-03
   0.1626   1.5853E-01	1.6665E-01	8.3084E-03	2.5364E-03
   0.1547   1.5079E-01	1.5853E-01	2.0322E-02	3.2757E-03
   0.1471   1.4344E-01	1.5079E-01	3.9015E-02	4.2884E-03
   0.1399   1.3644E-01	1.4344E-01	4.3661E-02	5.1596E-03
   0.1331   1.2979E-01	1.3644E-01	5.3765E-02	6.2378E-03
   0.1266   1.2346E-01	1.2979E-01	5.4461E-02	7.1543E-03
   0.1205   1.1744E-01	1.2346E-01	3.9833E-02	7.9810E-03
   0.1146   1.1171E-01	1.1744E-01	3.6664E-02	9.5567E-03
   0.1090   1.0626E-01	1.1171E-01	3.5071E-02	1.1934E-02
   0.1037   1.0108E-01	1.0626E-01	2.8768E-03	1.4908E-02
   0.0986   9.6150E-02	1.0108E-01	1.3214E-02	2.2455E-02
   0.0938   9.1461E-02	9.6150E-02	2.2889E-02	4.1134E-02
